#      z (A) rho (1e-6/A2) irho (1e-6/A2)
-10.00000000   0.00000000   0.00000000
 -9.90000000   0.00000000   0.00000000
 -9.80000000   0.00000000   0.00000000
 -9.70000000   0.00000000   0.00000000
 -9.60000000   0.00000000   0.00000000
 -9.50000000   0.00000000   0.00000000
 -9.40000000   0.00000000   0.00000000
 -9.30000000   0.00000000   0.00000000
 -9.20000000   0.00000000   0.00000000
 -9.10000000   0.00000000   0.00000000
 -9.00000000   0.00000000   0.00000000
 -8.90000000   0.00000000   0.00000000
 -8.80000000   0.00000000   0.00000000
 -8.70000000   0.00000000   0.00000000
 -8.60000000   0.00000000   0.00000000
 -8.50000000   0.00000000   0.00000000
 -8.40000000   0.00000000   0.00000000
 -8.30000000   0.00000000   0.00000000
 -8.20000000   0.00000000   0.00000000
 -8.10000000   0.00000000   0.00000000
 -8.00000000   0.00000000   0.00000000
 -7.90000000   0.00000000   0.00000000
 -7.80000000   0.00000000   0.00000000
 -7.70000000   0.00000000   0.00000000
 -7.60000000   0.00000000   0.00000000
 -7.50000000   0.00000000   0.00000000
 -7.40000000   0.00000000   0.00000000
 -7.30000000   0.00000000   0.00000000
 -7.20000000   0.00000000   0.00000000
 -7.10000000   0.00000000   0.00000000
 -7.00000000   0.00000000   0.00000000
 -6.90000000   0.00000000   0.00000000
 -6.80000000   0.00000000   0.00000000
 -6.70000000   0.00000000   0.00000000
 -6.60000000   0.00000000   0.00000000
 -6.50000000   0.00000000   0.00000000
 -6.40000000   0.00000000   0.00000000
 -6.30000000   0.00000000   0.00000000
 -6.20000000   0.00000000   0.00000000
 -6.10000000   0.00000000   0.00000000
 -6.00000000   0.00000000   0.00000000
 -5.90000000   0.00000000   0.00000000
 -5.80000000   0.00000000   0.00000000
 -5.70000000   0.00000000   0.00000000
 -5.60000000   0.00000000   0.00000000
 -5.50000000   0.00000000   0.00000000
 -5.40000000   0.00000000   0.00000000
 -5.30000000   0.00000000   0.00000000
 -5.20000000   0.00000000   0.00000000
 -5.10000000   0.00000000   0.00000000
 -5.00000000   0.00000000   0.00000000
 -4.90000000   0.00000000   0.00000000
 -4.80000000   0.00000000   0.00000000
 -4.70000000   0.00000000   0.00000000
 -4.60000000   0.00000000   0.00000000
 -4.50000000   0.00000000   0.00000000
 -4.40000000   0.00000000   0.00000000
 -4.30000000   0.00000000   0.00000000
 -4.20000000   0.00000000   0.00000000
 -4.10000000   0.00000000   0.00000000
 -4.00000000   0.00000000   0.00000000
 -3.90000000   0.00000000   0.00000000
 -3.80000000   0.00000000   0.00000000
 -3.70000000   0.00000000   0.00000000
 -3.60000000   0.00000000   0.00000000
 -3.50000000   0.00000000   0.00000000
 -3.40000000   0.00000000   0.00000000
 -3.30000000   0.00000000   0.00000000
 -3.20000000   0.00000000   0.00000000
 -3.10000000   0.00000000   0.00000000
 -3.00000000   0.00000000   0.00000000
 -2.90000000   0.00000000   0.00000000
 -2.80000000   0.00000000   0.00000000
 -2.70000000   0.00000000   0.00000000
 -2.60000000   0.00000000   0.00000000
 -2.50000000   0.00000000   0.00000000
 -2.40000000   0.00000000   0.00000000
 -2.30000000   0.00000000   0.00000000
 -2.20000000   0.00000000   0.00000000
 -2.10000000   0.00000000   0.00000000
 -2.00000000   0.00000000   0.00000000
 -1.90000000   0.00000000   0.00000000
 -1.80000000   0.00000000   0.00000000
 -1.70000000   0.00000000   0.00000000
 -1.60000000   0.00000000   0.00000000
 -1.50000000   0.00000000   0.00000000
 -1.40000000   0.00000000   0.00000000
 -1.30000000   0.00000000   0.00000000
 -1.20000000   0.00000000   0.00000000
 -1.10000000   0.00000000   0.00000000
 -1.00000000   0.00000000   0.00000000
 -0.90000000   0.00000000   0.00000000
 -0.80000000   0.00000000   0.00000000
 -0.70000000   0.00000000   0.00000000
 -0.60000000   0.00000000   0.00000000
 -0.50000000   0.00000000   0.00000000
 -0.40000000   0.00000000   0.00000000
 -0.30000000   0.00000000   0.00000000
 -0.20000000   0.00000000   0.00000000
 -0.10000000   0.00000000   0.00000000
 -0.00000000   0.00000000   0.00000000
  0.10000000   8.02405506   0.00060448
  0.20000000   8.02405506   0.00060448
  0.30000000   8.02405506   0.00060448
  0.40000000   8.02405506   0.00060448
  0.50000000   8.02405506   0.00060448
  0.60000000   8.02405506   0.00060448
  0.70000000   8.02405506   0.00060448
  0.80000000   8.02405506   0.00060448
  0.90000000   8.02405506   0.00060448
  1.00000000   8.02405506   0.00060448
  1.10000000   8.02405506   0.00060448
  1.20000000   8.02405506   0.00060448
  1.30000000   8.02405506   0.00060448
  1.40000000   8.02405506   0.00060448
  1.50000000   8.02405506   0.00060448
  1.60000000   8.02405506   0.00060448
  1.70000000   8.02405506   0.00060448
  1.80000000   8.02405506   0.00060448
  1.90000000   8.02405506   0.00060448
  2.00000000   8.02405506   0.00060448
  2.10000000   8.02405506   0.00060448
  2.20000000   8.02405506   0.00060448
  2.30000000   8.02405506   0.00060448
  2.40000000   8.02405506   0.00060448
  2.50000000   8.02405506   0.00060448
  2.60000000   8.02405506   0.00060448
  2.70000000   8.02405506   0.00060448
  2.80000000   8.02405506   0.00060448
  2.90000000   8.02405506   0.00060448
  3.00000000   8.02405506   0.00060448
  3.10000000   8.02405506   0.00060448
  3.20000000   8.02405506   0.00060448
  3.30000000   8.02405506   0.00060448
  3.40000000   8.02405506   0.00060448
  3.50000000   8.02405506   0.00060448
  3.60000000   8.02405506   0.00060448
  3.70000000   8.02405506   0.00060448
  3.80000000   8.02405506   0.00060448
  3.90000000   8.02405506   0.00060448
  4.00000000   8.02405506   0.00060448
  4.10000000   8.02405506   0.00060448
  4.20000000   8.02405506   0.00060448
  4.30000000   8.02405506   0.00060448
  4.40000000   8.02405506   0.00060448
  4.50000000   8.02405506   0.00060448
  4.60000000   8.02405506   0.00060448
  4.70000000   8.02405506   0.00060448
  4.80000000   8.02405506   0.00060448
  4.90000000   8.02405506   0.00060448
  5.00000000   8.02405506   0.00060448
  5.10000000   8.02405506   0.00060448
  5.20000000   8.02405506   0.00060448
  5.30000000   8.02405506   0.00060448
  5.40000000   8.02405506   0.00060448
  5.50000000   8.02405506   0.00060448
  5.60000000   8.02405506   0.00060448
  5.70000000   8.02405506   0.00060448
  5.80000000   8.02405506   0.00060448
  5.90000000   8.02405506   0.00060448
  6.00000000   8.02405506   0.00060448
  6.10000000   8.02405506   0.00060448
  6.20000000   8.02405506   0.00060448
  6.30000000   8.02405506   0.00060448
  6.40000000   8.02405506   0.00060448
  6.50000000   8.02405506   0.00060448
  6.60000000   8.02405506   0.00060448
  6.70000000   8.02405506   0.00060448
  6.80000000   8.02405506   0.00060448
  6.90000000   8.02405506   0.00060448
  7.00000000   8.02405506   0.00060448
  7.10000000   8.02405506   0.00060448
  7.20000000   8.02405506   0.00060448
  7.30000000   8.02405506   0.00060448
  7.40000000   8.02405506   0.00060448
  7.50000000   8.02405506   0.00060448
  7.60000000   8.02405506   0.00060448
  7.70000000   8.02405506   0.00060448
  7.80000000   8.02405506   0.00060448
  7.90000000   8.02405506   0.00060448
  8.00000000   8.02405506   0.00060448
  8.10000000   8.02405506   0.00060448
  8.20000000   8.02405506   0.00060448
  8.30000000   8.02405506   0.00060448
  8.40000000   8.02405506   0.00060448
  8.50000000   8.02405506   0.00060448
  8.60000000   8.02405506   0.00060448
  8.70000000   8.02405506   0.00060448
  8.80000000   8.02405506   0.00060448
  8.90000000   8.02405506   0.00060448
  9.00000000   8.02405506   0.00060448
  9.10000000   8.02405506   0.00060448
  9.20000000   8.02405506   0.00060448
  9.30000000   8.02405506   0.00060448
  9.40000000   8.02405506   0.00060448
  9.50000000   8.02405506   0.00060448
  9.60000000   8.02405506   0.00060448
  9.70000000   8.02405506   0.00060448
  9.80000000   8.02405506   0.00060448
  9.90000000   8.02405506   0.00060448
 10.00000000   8.02405506   0.00060448
 10.10000000   8.02405506   0.00060448
 10.20000000   8.02405506   0.00060448
 10.30000000   8.02405506   0.00060448
 10.40000000   8.02405506   0.00060448
 10.50000000   8.02405506   0.00060448
 10.60000000   8.02405506   0.00060448
 10.70000000   8.02405506   0.00060448
 10.80000000   8.02405506   0.00060448
 10.90000000   8.02405506   0.00060448
 11.00000000   8.02405506   0.00060448
 11.10000000   8.02405506   0.00060448
 11.20000000   8.02405506   0.00060448
 11.30000000   8.02405506   0.00060448
 11.40000000   8.02405506   0.00060448
 11.50000000   8.02405506   0.00060448
 11.60000000   8.02405506   0.00060448
 11.70000000   8.02405506   0.00060448
 11.80000000   8.02405506   0.00060448
 11.90000000   8.02405506   0.00060448
 12.00000000   8.02405506   0.00060448
 12.10000000   8.02405506   0.00060448
 12.20000000   8.02405506   0.00060448
 12.30000000   8.02405506   0.00060448
 12.40000000   8.02405506   0.00060448
 12.50000000   8.02405506   0.00060448
 12.60000000   8.02405506   0.00060448
 12.70000000   8.02405506   0.00060448
 12.80000000   8.02405506   0.00060448
 12.90000000   8.02405506   0.00060448
 13.00000000   8.02405506   0.00060448
 13.10000000   8.02405506   0.00060448
 13.20000000   8.02405506   0.00060448
 13.30000000   8.02405506   0.00060448
 13.40000000   8.02405506   0.00060448
 13.50000000   8.02405506   0.00060448
 13.60000000   8.02405506   0.00060448
 13.70000000   8.02405506   0.00060448
 13.80000000   8.02405506   0.00060448
 13.90000000   8.02405506   0.00060448
 14.00000000   8.02405506   0.00060448
 14.10000000   8.02405506   0.00060448
 14.20000000   8.02405506   0.00060448
 14.30000000   8.02405506   0.00060448
 14.40000000   8.02405506   0.00060448
 14.50000000   8.02405506   0.00060448
 14.60000000   8.02405506   0.00060448
 14.70000000   8.02405506   0.00060448
 14.80000000   8.02405506   0.00060448
 14.90000000   8.02405506   0.00060448
 15.00000000   8.02405506   0.00060448
 15.10000000   8.02405506   0.00060448
 15.20000000   8.02405506   0.00060448
 15.30000000   8.02405506   0.00060448
 15.40000000   8.02405506   0.00060448
 15.50000000   8.02405506   0.00060448
 15.60000000   8.02405506   0.00060448
 15.70000000   8.02405506   0.00060448
 15.80000000   8.02405506   0.00060448
 15.90000000   8.02405506   0.00060448
 16.00000000   8.02405506   0.00060448
 16.10000000   8.02405506   0.00060448
 16.20000000   8.02405506   0.00060448
 16.30000000   8.02405506   0.00060448
 16.40000000   8.02405506   0.00060448
 16.50000000   8.02405506   0.00060448
 16.60000000   8.02405506   0.00060448
 16.70000000   8.02405506   0.00060448
 16.80000000   8.02405506   0.00060448
 16.90000000   8.02405506   0.00060448
 17.00000000   8.02405506   0.00060448
 17.10000000   8.02405506   0.00060448
 17.20000000   8.02405506   0.00060448
 17.30000000   8.02405506   0.00060448
 17.40000000   8.02405506   0.00060448
 17.50000000   8.02405506   0.00060448
 17.60000000   8.02405506   0.00060448
 17.70000000   8.02405506   0.00060448
 17.80000000   8.02405506   0.00060448
 17.90000000   8.02405506   0.00060448
 18.00000000   8.02405506   0.00060448
 18.10000000   8.02405506   0.00060448
 18.20000000   8.02405506   0.00060448
 18.30000000   8.02405506   0.00060448
 18.40000000   8.02405506   0.00060448
 18.50000000   8.02405506   0.00060448
 18.60000000   8.02405506   0.00060448
 18.70000000   8.02405506   0.00060448
 18.80000000   8.02405506   0.00060448
 18.90000000   8.02405506   0.00060448
 19.00000000   8.02405506   0.00060448
 19.10000000   8.02405506   0.00060448
 19.20000000   8.02405506   0.00060448
 19.30000000   8.02405506   0.00060448
 19.40000000   8.02405506   0.00060448
 19.50000000   8.02405506   0.00060448
 19.60000000   8.02405506   0.00060448
 19.70000000   8.02405506   0.00060448
 19.80000000   8.02405506   0.00060448
 19.90000000   8.02405506   0.00060448
 20.00000000   8.02405506   0.00060448
 20.10000000   8.02405506   0.00060448
 20.20000000   8.02405506   0.00060448
 20.30000000   8.02405506   0.00060448
 20.40000000   8.02405506   0.00060448
 20.50000000   8.02405506   0.00060448
 20.60000000   8.02405506   0.00060448
 20.70000000   8.02405506   0.00060448
 20.80000000   8.02405506   0.00060448
 20.90000000   8.02405506   0.00060448
 21.00000000   8.02405506   0.00060448
 21.10000000   8.02405506   0.00060448
 21.20000000   8.02405506   0.00060448
 21.30000000   8.02405506   0.00060448
 21.40000000   8.02405506   0.00060448
 21.50000000   8.02405506   0.00060448
 21.60000000   8.02405506   0.00060448
 21.70000000   8.02405506   0.00060448
 21.80000000   8.02405506   0.00060448
 21.90000000   8.02405506   0.00060448
 22.00000000   8.02405506   0.00060448
 22.10000000   8.02405506   0.00060448
 22.20000000   8.02405506   0.00060448
 22.30000000   8.02405506   0.00060448
 22.40000000   8.02405506   0.00060448
 22.50000000   8.02405506   0.00060448
 22.60000000   8.02405506   0.00060448
 22.70000000   8.02405506   0.00060448
 22.80000000   8.02405506   0.00060448
 22.90000000   8.02405506   0.00060448
 23.00000000   8.02405506   0.00060448
 23.10000000   8.02405506   0.00060448
 23.20000000   8.02405506   0.00060448
 23.30000000   8.02405506   0.00060448
 23.40000000   8.02405506   0.00060448
 23.50000000   8.02405506   0.00060448
 23.60000000   8.02405506   0.00060448
 23.70000000   8.02405506   0.00060448
 23.80000000   8.02405506   0.00060448
 23.90000000   8.02405506   0.00060448
 24.00000000   8.02405506   0.00060448
 24.10000000   8.02405506   0.00060448
 24.20000000   8.02405506   0.00060448
 24.30000000   8.02405506   0.00060448
 24.40000000   8.02405506   0.00060448
 24.50000000   8.02405506   0.00060448
 24.60000000   8.02405506   0.00060448
 24.70000000   8.02405506   0.00060448
 24.80000000   8.02405506   0.00060448
 24.90000000   8.02405506   0.00060448
 25.00000000   8.02405506   0.00060448
 25.10000000   8.02405506   0.00060448
 25.20000000   8.02405506   0.00060448
 25.30000000   8.02405506   0.00060448
 25.40000000   8.02405506   0.00060448
 25.50000000   8.02405506   0.00060448
 25.60000000   8.02405506   0.00060448
 25.70000000   8.02405506   0.00060448
 25.80000000   8.02405506   0.00060448
 25.90000000   8.02405506   0.00060448
 26.00000000   8.02405506   0.00060448
 26.10000000   8.02405506   0.00060448
 26.20000000   8.02405506   0.00060448
 26.30000000   8.02405506   0.00060448
 26.40000000   8.02405506   0.00060448
 26.50000000   8.02405506   0.00060448
 26.60000000   8.02405506   0.00060448
 26.70000000   8.02405506   0.00060448
 26.80000000   8.02405506   0.00060448
 26.90000000   8.02405506   0.00060448
 27.00000000   8.02405506   0.00060448
 27.10000000   8.02405506   0.00060448
 27.20000000   8.02405506   0.00060448
 27.30000000   8.02405506   0.00060448
 27.40000000   8.02405506   0.00060448
 27.50000000   8.02405506   0.00060448
 27.60000000   8.02405506   0.00060448
 27.70000000   8.02405506   0.00060448
 27.80000000   8.02405506   0.00060448
 27.90000000   8.02405506   0.00060448
 28.00000000   8.02405506   0.00060448
 28.10000000   8.02405506   0.00060448
 28.20000000   8.02405506   0.00060448
 28.30000000   8.02405506   0.00060448
 28.40000000   8.02405506   0.00060448
 28.50000000   8.02405506   0.00060448
 28.60000000   8.02405506   0.00060448
 28.70000000   8.02405506   0.00060448
 28.80000000   8.02405506   0.00060448
 28.90000000   8.02405506   0.00060448
 29.00000000   8.02405506   0.00060448
 29.10000000   8.02405506   0.00060448
 29.20000000   8.02405506   0.00060448
 29.30000000   8.02405506   0.00060448
 29.40000000   8.02405506   0.00060448
 29.50000000   8.02405506   0.00060448
 29.60000000   8.02405506   0.00060448
 29.70000000   8.02405506   0.00060448
 29.80000000   8.02405506   0.00060448
 29.90000000   8.02405506   0.00060448
 30.00000000   8.02405506   0.00060448
 30.10000000   8.02405506   0.00060448
 30.20000000   8.02405506   0.00060448
 30.30000000   8.02405506   0.00060448
 30.40000000   8.02405506   0.00060448
 30.50000000   8.02405506   0.00060448
 30.60000000   8.02405506   0.00060448
 30.70000000   8.02405506   0.00060448
 30.80000000   8.02405506   0.00060448
 30.90000000   8.02405506   0.00060448
 31.00000000   8.02405506   0.00060448
 31.10000000   8.02405506   0.00060448
 31.20000000   8.02405506   0.00060448
 31.30000000   8.02405506   0.00060448
 31.40000000   8.02405506   0.00060448
 31.50000000   8.02405506   0.00060448
 31.60000000   8.02405506   0.00060448
 31.70000000   8.02405506   0.00060448
 31.80000000   8.02405506   0.00060448
 31.90000000   8.02405506   0.00060448
 32.00000000   8.02405506   0.00060448
 32.10000000   8.02405506   0.00060448
 32.20000000   8.02405506   0.00060448
 32.30000000   8.02405506   0.00060448
 32.40000000   8.02405506   0.00060448
 32.50000000   8.02405506   0.00060448
 32.60000000   8.02405506   0.00060448
 32.70000000   8.02405506   0.00060448
 32.80000000   8.02405506   0.00060448
 32.90000000   8.02405506   0.00060448
 33.00000000   8.02405506   0.00060448
 33.10000000   8.02405506   0.00060448
 33.20000000   8.02405506   0.00060448
 33.30000000   8.02405506   0.00060448
 33.40000000   6.55353378   0.00089257
 33.50000000   6.55353378   0.00089257
 33.60000000   6.55353378   0.00089257
 33.70000000   6.55353378   0.00089257
 33.80000000   6.55353378   0.00089257
 33.90000000   6.55353378   0.00089257
 34.00000000   6.55353378   0.00089257
 34.10000000   6.55353378   0.00089257
 34.20000000   6.55353378   0.00089257
 34.30000000   6.55353378   0.00089257
 34.40000000   6.55353378   0.00089257
 34.50000000   6.55353378   0.00089257
 34.60000000   6.55353378   0.00089257
 34.70000000   6.55353378   0.00089257
 34.80000000   6.55353378   0.00089257
 34.90000000   6.55353378   0.00089257
 35.00000000   6.55353378   0.00089257
 35.10000000   6.55353378   0.00089257
 35.20000000   6.55353378   0.00089257
 35.30000000   6.55353378   0.00089257
 35.40000000   6.55353378   0.00089257
 35.50000000   6.55353378   0.00089257
 35.60000000   6.55353378   0.00089257
 35.70000000   6.55353378   0.00089257
 35.80000000   6.55353378   0.00089257
 35.90000000   6.55353378   0.00089257
 36.00000000   6.55353378   0.00089257
 36.10000000   6.55353378   0.00089257
 36.20000000   6.55353378   0.00089257
 36.30000000   6.55353378   0.00089257
 36.40000000   6.55353378   0.00089257
 36.50000000   6.55353378   0.00089257
 36.60000000   6.55353378   0.00089257
 36.70000000   6.55353378   0.00089257
 36.80000000   6.55353378   0.00089257
 36.90000000   6.55353378   0.00089257
 37.00000000   6.55353378   0.00089257
 37.10000000   6.55353378   0.00089257
 37.20000000   6.55353378   0.00089257
 37.30000000   6.55353378   0.00089257
 37.40000000   6.55353378   0.00089257
 37.50000000   6.55353378   0.00089257
 37.60000000   6.55353378   0.00089257
 37.70000000   6.55353378   0.00089257
 37.80000000   6.55353378   0.00089257
 37.90000000   6.55353378   0.00089257
 38.00000000   6.55353378   0.00089257
 38.10000000   6.55353378   0.00089257
 38.20000000   6.55353378   0.00089257
 38.30000000   6.55353378   0.00089257
 38.40000000   6.55353378   0.00089257
 38.50000000   6.55353378   0.00089257
 38.60000000   6.55353378   0.00089257
 38.70000000   6.55353378   0.00089257
 38.80000000   6.55353378   0.00089257
 38.90000000   6.55353378   0.00089257
 39.00000000   6.55353378   0.00089257
 39.10000000   6.55353378   0.00089257
 39.20000000   6.55353378   0.00089257
 39.30000000   6.55353378   0.00089257
 39.40000000   6.55353378   0.00089257
 39.50000000   6.55353378   0.00089257
 39.60000000   6.55353378   0.00089257
 39.70000000   6.55353378   0.00089257
 39.80000000   6.55353378   0.00089257
 39.90000000   6.55353378   0.00089257
 40.00000000   6.55353378   0.00089257
 40.10000000   6.55353378   0.00089257
 40.20000000   6.55353378   0.00089257
 40.30000000   6.55353378   0.00089257
 40.40000000   6.55353378   0.00089257
 40.50000000   6.55353378   0.00089257
 40.60000000   6.55353378   0.00089257
 40.70000000   6.55353378   0.00089257
 40.80000000   6.55353378   0.00089257
 40.90000000   6.55353378   0.00089257
 41.00000000   6.55353378   0.00089257
 41.10000000   6.55353378   0.00089257
 41.20000000   6.55353378   0.00089257
 41.30000000   6.55353378   0.00089257
 41.40000000   6.55353378   0.00089257
 41.50000000   6.55353378   0.00089257
 41.60000000   6.55353378   0.00089257
 41.70000000   6.55353378   0.00089257
 41.80000000   6.55353378   0.00089257
 41.90000000   6.55353378   0.00089257
 42.00000000   6.55353378   0.00089257
 42.10000000   6.55353378   0.00089257
 42.20000000   6.55353378   0.00089257
 42.30000000   6.55353378   0.00089257
 42.40000000   6.55353378   0.00089257
 42.50000000   6.55353378   0.00089257
 42.60000000   6.55353378   0.00089257
 42.70000000   6.55353378   0.00089257
 42.80000000   6.55353378   0.00089257
 42.90000000   6.55353378   0.00089257
 43.00000000   6.55353378   0.00089257
 43.10000000   6.55353378   0.00089257
 43.20000000   6.55353378   0.00089257
 43.30000000   6.55353378   0.00089257
 43.40000000   6.55353378   0.00089257
 43.50000000   6.55353378   0.00089257
 43.60000000   6.55353378   0.00089257
 43.70000000   6.55353378   0.00089257
 43.80000000   6.55353378   0.00089257
 43.90000000   6.55353378   0.00089257
 44.00000000   6.55353378   0.00089257
 44.10000000   6.55353378   0.00089257
 44.20000000   6.55353378   0.00089257
 44.30000000   6.55353378   0.00089257
 44.40000000   6.55353378   0.00089257
 44.50000000   6.55353378   0.00089257
 44.60000000   6.55353378   0.00089257
 44.70000000   6.55353378   0.00089257
 44.80000000   6.55353378   0.00089257
 44.90000000   6.55353378   0.00089257
 45.00000000   6.55353378   0.00089257
 45.10000000   6.55353378   0.00089257
 45.20000000   6.55353378   0.00089257
 45.30000000   6.55353378   0.00089257
 45.40000000   6.55353378   0.00089257
 45.50000000   6.55353378   0.00089257
 45.60000000   6.55353378   0.00089257
 45.70000000   6.55353378   0.00089257
 45.80000000   6.55353378   0.00089257
 45.90000000   6.55353378   0.00089257
 46.00000000   6.55353378   0.00089257
 46.10000000   6.55353378   0.00089257
 46.20000000   6.55353378   0.00089257
 46.30000000   6.55353378   0.00089257
 46.40000000   6.55353378   0.00089257
 46.50000000   6.55353378   0.00089257
 46.60000000   6.55353378   0.00089257
 46.70000000   6.55353378   0.00089257
 46.80000000   6.55353378   0.00089257
 46.90000000   6.55353378   0.00089257
 47.00000000   6.55353378   0.00089257
 47.10000000   6.55353378   0.00089257
 47.20000000   6.55353378   0.00089257
 47.30000000   6.55353378   0.00089257
 47.40000000   6.55353378   0.00089257
 47.50000000   6.55353378   0.00089257
 47.60000000   6.55353378   0.00089257
 47.70000000   6.55353378   0.00089257
 47.80000000   6.55353378   0.00089257
 47.90000000   6.55353378   0.00089257
 48.00000000   6.55353378   0.00089257
 48.10000000   6.55353378   0.00089257
 48.20000000   6.55353378   0.00089257
 48.30000000   6.55353378   0.00089257
 48.40000000   6.55353378   0.00089257
 48.50000000   6.55353378   0.00089257
 48.60000000   6.55353378   0.00089257
 48.70000000   6.55353378   0.00089257
 48.80000000   6.55353378   0.00089257
 48.90000000   6.55353378   0.00089257
 49.00000000   6.55353378   0.00089257
 49.10000000   6.55353378   0.00089257
 49.20000000   6.55353378   0.00089257
 49.30000000   6.55353378   0.00089257
 49.40000000   6.55353378   0.00089257
 49.50000000   6.55353378   0.00089257
 49.60000000   6.55353378   0.00089257
 49.70000000   6.55353378   0.00089257
 49.80000000   6.55353378   0.00089257
 49.90000000   6.55353378   0.00089257
 50.00000000   6.55353378   0.00089257
 50.10000000   6.55353378   0.00089257
 50.20000000   6.55353378   0.00089257
 50.30000000   6.55353378   0.00089257
 50.40000000   6.55353378   0.00089257
 50.50000000   6.55353378   0.00089257
 50.60000000   6.55353378   0.00089257
 50.70000000   6.55353378   0.00089257
 50.80000000   6.55353378   0.00089257
 50.90000000   6.55353378   0.00089257
 51.00000000   6.55353378   0.00089257
 51.10000000   6.55353378   0.00089257
 51.20000000   6.55353378   0.00089257
 51.30000000   6.55353378   0.00089257
 51.40000000   6.55353378   0.00089257
 51.50000000   6.55353378   0.00089257
 51.60000000   6.55353378   0.00089257
 51.70000000   6.55353378   0.00089257
 51.80000000   6.55353378   0.00089257
 51.90000000   6.55353378   0.00089257
 52.00000000   6.55353378   0.00089257
 52.10000000   6.55353378   0.00089257
 52.20000000   6.55353378   0.00089257
 52.30000000   6.55353378   0.00089257
 52.40000000   6.55353378   0.00089257
 52.50000000   6.55353378   0.00089257
 52.60000000   6.55353378   0.00089257
 52.70000000   6.55353378   0.00089257
 52.80000000   6.55353378   0.00089257
 52.90000000   6.55353378   0.00089257
 53.00000000   6.55353378   0.00089257
 53.10000000   6.55353378   0.00089257
 53.20000000   6.55353378   0.00089257
 53.30000000   6.55353378   0.00089257
 53.40000000   6.55353378   0.00089257
 53.50000000   6.55353378   0.00089257
 53.60000000   6.55353378   0.00089257
 53.70000000   6.55353378   0.00089257
 53.80000000   6.55353378   0.00089257
 53.90000000   6.55353378   0.00089257
 54.00000000   6.55353378   0.00089257
 54.10000000   6.55353378   0.00089257
 54.20000000   6.55353378   0.00089257
 54.30000000   6.55353378   0.00089257
 54.40000000   6.55353378   0.00089257
 54.50000000   6.55353378   0.00089257
 54.60000000   6.55353378   0.00089257
 54.70000000   6.55353378   0.00089257
 54.80000000   6.55353378   0.00089257
 54.90000000   6.55353378   0.00089257
 55.00000000   6.55353378   0.00089257
 55.10000000   6.55353378   0.00089257
 55.20000000   6.55353378   0.00089257
 55.30000000   6.55353378   0.00089257
 55.40000000   6.55353378   0.00089257
 55.50000000   6.55353378   0.00089257
 55.60000000   6.55353378   0.00089257
 55.70000000   6.55353378   0.00089257
 55.80000000   6.55353378   0.00089257
 55.90000000   6.55353378   0.00089257
 56.00000000   6.55353378   0.00089257
 56.10000000   6.55353378   0.00089257
 56.20000000   6.55353378   0.00089257
 56.30000000   6.55353378   0.00089257
 56.40000000   6.55353378   0.00089257
 56.50000000   6.55353378   0.00089257
 56.60000000   6.55353378   0.00089257
 56.70000000   6.55353378   0.00089257
 56.80000000   6.55353378   0.00089257
 56.90000000   6.55353378   0.00089257
 57.00000000   6.55353378   0.00089257
 57.10000000   6.55353378   0.00089257
 57.20000000   6.55353378   0.00089257
 57.30000000   6.55353378   0.00089257
 57.40000000   6.55353378   0.00089257
 57.50000000   6.55353378   0.00089257
 57.60000000   6.55353378   0.00089257
 57.70000000   6.55353378   0.00089257
 57.80000000   6.55353378   0.00089257
 57.90000000   6.55353378   0.00089257
 58.00000000   6.55353378   0.00089257
 58.10000000   6.55353378   0.00089257
 58.20000000   6.55353378   0.00089257
 58.30000000   6.55353378   0.00089257
 58.40000000   6.55353378   0.00089257
 58.50000000   6.55353378   0.00089257
 58.60000000   6.55353378   0.00089257
 58.70000000   6.55353378   0.00089257
 58.80000000   6.55353378   0.00089257
 58.90000000   6.55353378   0.00089257
 59.00000000   6.55353378   0.00089257
 59.10000000   6.55353378   0.00089257
 59.20000000   6.55353378   0.00089257
 59.30000000   6.55353378   0.00089257
 59.40000000   6.55353378   0.00089257
 59.50000000   6.55353378   0.00089257
 59.60000000   6.55353378   0.00089257
 59.70000000   6.55353378   0.00089257
 59.80000000   6.55353378   0.00089257
 59.90000000   6.55353378   0.00089257
 60.00000000   6.55353378   0.00089257
 60.10000000   6.55353378   0.00089257
 60.20000000   6.55353378   0.00089257
 60.30000000   6.55353378   0.00089257
 60.40000000   6.55353378   0.00089257
 60.50000000   6.55353378   0.00089257
 60.60000000   6.55353378   0.00089257
 60.70000000   6.55353378   0.00089257
 60.80000000   6.55353378   0.00089257
 60.90000000   6.55353378   0.00089257
 61.00000000   6.55353378   0.00089257
 61.10000000   6.55353378   0.00089257
 61.20000000   6.55353378   0.00089257
 61.30000000   6.55353378   0.00089257
 61.40000000   6.55353378   0.00089257
 61.50000000   6.55353378   0.00089257
 61.60000000   6.55353378   0.00089257
 61.70000000   6.55353378   0.00089257
 61.80000000   6.55353378   0.00089257
 61.90000000   6.55353378   0.00089257
 62.00000000   6.55353378   0.00089257
 62.10000000   6.55353378   0.00089257
 62.20000000   6.55353378   0.00089257
 62.30000000   6.55353378   0.00089257
 62.40000000   6.55353378   0.00089257
 62.50000000   6.55353378   0.00089257
 62.60000000   6.55353378   0.00089257
 62.70000000   6.55353378   0.00089257
 62.80000000   6.55353378   0.00089257
 62.90000000   6.55353378   0.00089257
 63.00000000   6.55353378   0.00089257
 63.10000000   6.55353378   0.00089257
 63.20000000   6.55353378   0.00089257
 63.30000000   6.55353378   0.00089257
 63.40000000   6.55353378   0.00089257
 63.50000000   6.55353378   0.00089257
 63.60000000   6.55353378   0.00089257
 63.70000000   6.55353378   0.00089257
 63.80000000   6.55353378   0.00089257
 63.90000000   6.55353378   0.00089257
 64.00000000   6.55353378   0.00089257
 64.10000000   6.55353378   0.00089257
 64.20000000   6.55353378   0.00089257
 64.30000000   6.55353378   0.00089257
 64.40000000   6.55353378   0.00089257
 64.50000000   6.55353378   0.00089257
 64.60000000   6.55353378   0.00089257
 64.70000000   6.55353378   0.00089257
 64.80000000   6.55353378   0.00089257
 64.90000000   6.55353378   0.00089257
 65.00000000   6.55353378   0.00089257
 65.10000000   6.55353378   0.00089257
 65.20000000   6.55353378   0.00089257
 65.30000000   6.55353378   0.00089257
 65.40000000   6.55353378   0.00089257
 65.50000000   6.55353378   0.00089257
 65.60000000   6.55353378   0.00089257
 65.70000000   6.55353378   0.00089257
 65.80000000   6.55353378   0.00089257
 65.90000000   6.55353378   0.00089257
 66.00000000   6.55353378   0.00089257
 66.10000000   6.55353378   0.00089257
 66.20000000   6.55353378   0.00089257
 66.30000000   6.55353378   0.00089257
 66.40000000   6.55353378   0.00089257
 66.50000000   6.55353378   0.00089257
 66.60000000   6.55353378   0.00089257
 66.70000000   8.02405506   0.00060448
 66.80000000   8.02405506   0.00060448
 66.90000000   8.02405506   0.00060448
 67.00000000   8.02405506   0.00060448
 67.10000000   8.02405506   0.00060448
 67.20000000   8.02405506   0.00060448
 67.30000000   8.02405506   0.00060448
 67.40000000   8.02405506   0.00060448
 67.50000000   8.02405506   0.00060448
 67.60000000   8.02405506   0.00060448
 67.70000000   8.02405506   0.00060448
 67.80000000   8.02405506   0.00060448
 67.90000000   8.02405506   0.00060448
 68.00000000   8.02405506   0.00060448
 68.10000000   8.02405506   0.00060448
 68.20000000   8.02405506   0.00060448
 68.30000000   8.02405506   0.00060448
 68.40000000   8.02405506   0.00060448
 68.50000000   8.02405506   0.00060448
 68.60000000   8.02405506   0.00060448
 68.70000000   8.02405506   0.00060448
 68.80000000   8.02405506   0.00060448
 68.90000000   8.02405506   0.00060448
 69.00000000   8.02405506   0.00060448
 69.10000000   8.02405506   0.00060448
 69.20000000   8.02405506   0.00060448
 69.30000000   8.02405506   0.00060448
 69.40000000   8.02405506   0.00060448
 69.50000000   8.02405506   0.00060448
 69.60000000   8.02405506   0.00060448
 69.70000000   8.02405506   0.00060448
 69.80000000   8.02405506   0.00060448
 69.90000000   8.02405506   0.00060448
 70.00000000   8.02405506   0.00060448
 70.10000000   8.02405506   0.00060448
 70.20000000   8.02405506   0.00060448
 70.30000000   8.02405506   0.00060448
 70.40000000   8.02405506   0.00060448
 70.50000000   8.02405506   0.00060448
 70.60000000   8.02405506   0.00060448
 70.70000000   8.02405506   0.00060448
 70.80000000   8.02405506   0.00060448
 70.90000000   8.02405506   0.00060448
 71.00000000   8.02405506   0.00060448
 71.10000000   8.02405506   0.00060448
 71.20000000   8.02405506   0.00060448
 71.30000000   8.02405506   0.00060448
 71.40000000   8.02405506   0.00060448
 71.50000000   8.02405506   0.00060448
 71.60000000   8.02405506   0.00060448
 71.70000000   8.02405506   0.00060448
 71.80000000   8.02405506   0.00060448
 71.90000000   8.02405506   0.00060448
 72.00000000   8.02405506   0.00060448
 72.10000000   8.02405506   0.00060448
 72.20000000   8.02405506   0.00060448
 72.30000000   8.02405506   0.00060448
 72.40000000   8.02405506   0.00060448
 72.50000000   8.02405506   0.00060448
 72.60000000   8.02405506   0.00060448
 72.70000000   8.02405506   0.00060448
 72.80000000   8.02405506   0.00060448
 72.90000000   8.02405506   0.00060448
 73.00000000   8.02405506   0.00060448
 73.10000000   8.02405506   0.00060448
 73.20000000   8.02405506   0.00060448
 73.30000000   8.02405506   0.00060448
 73.40000000   8.02405506   0.00060448
 73.50000000   8.02405506   0.00060448
 73.60000000   8.02405506   0.00060448
 73.70000000   8.02405506   0.00060448
 73.80000000   8.02405506   0.00060448
 73.90000000   8.02405506   0.00060448
 74.00000000   8.02405506   0.00060448
 74.10000000   8.02405506   0.00060448
 74.20000000   8.02405506   0.00060448
 74.30000000   8.02405506   0.00060448
 74.40000000   8.02405506   0.00060448
 74.50000000   8.02405506   0.00060448
 74.60000000   8.02405506   0.00060448
 74.70000000   8.02405506   0.00060448
 74.80000000   8.02405506   0.00060448
 74.90000000   8.02405506   0.00060448
 75.00000000   8.02405506   0.00060448
 75.10000000   8.02405506   0.00060448
 75.20000000   8.02405506   0.00060448
 75.30000000   8.02405506   0.00060448
 75.40000000   8.02405506   0.00060448
 75.50000000   8.02405506   0.00060448
 75.60000000   8.02405506   0.00060448
 75.70000000   8.02405506   0.00060448
 75.80000000   8.02405506   0.00060448
 75.90000000   8.02405506   0.00060448
 76.00000000   8.02405506   0.00060448
 76.10000000   8.02405506   0.00060448
 76.20000000   8.02405506   0.00060448
 76.30000000   8.02405506   0.00060448
 76.40000000   8.02405506   0.00060448
 76.50000000   8.02405506   0.00060448
 76.60000000   8.02405506   0.00060448
 76.70000000   8.02405506   0.00060448
 76.80000000   8.02405506   0.00060448
 76.90000000   8.02405506   0.00060448
 77.00000000   8.02405506   0.00060448
 77.10000000   8.02405506   0.00060448
 77.20000000   8.02405506   0.00060448
 77.30000000   8.02405506   0.00060448
 77.40000000   8.02405506   0.00060448
 77.50000000   8.02405506   0.00060448
 77.60000000   8.02405506   0.00060448
 77.70000000   8.02405506   0.00060448
 77.80000000   8.02405506   0.00060448
 77.90000000   8.02405506   0.00060448
 78.00000000   8.02405506   0.00060448
 78.10000000   8.02405506   0.00060448
 78.20000000   8.02405506   0.00060448
 78.30000000   8.02405506   0.00060448
 78.40000000   8.02405506   0.00060448
 78.50000000   8.02405506   0.00060448
 78.60000000   8.02405506   0.00060448
 78.70000000   8.02405506   0.00060448
 78.80000000   8.02405506   0.00060448
 78.90000000   8.02405506   0.00060448
 79.00000000   8.02405506   0.00060448
 79.10000000   8.02405506   0.00060448
 79.20000000   8.02405506   0.00060448
 79.30000000   8.02405506   0.00060448
 79.40000000   8.02405506   0.00060448
 79.50000000   8.02405506   0.00060448
 79.60000000   8.02405506   0.00060448
 79.70000000   8.02405506   0.00060448
 79.80000000   8.02405506   0.00060448
 79.90000000   8.02405506   0.00060448
 80.00000000   8.02405506   0.00060448
 80.10000000   8.02405506   0.00060448
 80.20000000   8.02405506   0.00060448
 80.30000000   8.02405506   0.00060448
 80.40000000   8.02405506   0.00060448
 80.50000000   8.02405506   0.00060448
 80.60000000   8.02405506   0.00060448
 80.70000000   8.02405506   0.00060448
 80.80000000   8.02405506   0.00060448
 80.90000000   8.02405506   0.00060448
 81.00000000   8.02405506   0.00060448
 81.10000000   8.02405506   0.00060448
 81.20000000   8.02405506   0.00060448
 81.30000000   8.02405506   0.00060448
 81.40000000   8.02405506   0.00060448
 81.50000000   8.02405506   0.00060448
 81.60000000   8.02405506   0.00060448
 81.70000000   8.02405506   0.00060448
 81.80000000   8.02405506   0.00060448
 81.90000000   8.02405506   0.00060448
 82.00000000   8.02405506   0.00060448
 82.10000000   8.02405506   0.00060448
 82.20000000   8.02405506   0.00060448
 82.30000000   8.02405506   0.00060448
 82.40000000   8.02405506   0.00060448
 82.50000000   8.02405506   0.00060448
 82.60000000   8.02405506   0.00060448
 82.70000000   8.02405506   0.00060448
 82.80000000   8.02405506   0.00060448
 82.90000000   8.02405506   0.00060448
 83.00000000   8.02405506   0.00060448
 83.10000000   8.02405506   0.00060448
 83.20000000   8.02405506   0.00060448
 83.30000000   8.02405506   0.00060448
 83.40000000   8.02405506   0.00060448
 83.50000000   8.02405506   0.00060448
 83.60000000   8.02405506   0.00060448
 83.70000000   8.02405506   0.00060448
 83.80000000   8.02405506   0.00060448
 83.90000000   8.02405506   0.00060448
 84.00000000   8.02405506   0.00060448
 84.10000000   8.02405506   0.00060448
 84.20000000   8.02405506   0.00060448
 84.30000000   8.02405506   0.00060448
 84.40000000   8.02405506   0.00060448
 84.50000000   8.02405506   0.00060448
 84.60000000   8.02405506   0.00060448
 84.70000000   8.02405506   0.00060448
 84.80000000   8.02405506   0.00060448
 84.90000000   8.02405506   0.00060448
 85.00000000   8.02405506   0.00060448
 85.10000000   8.02405506   0.00060448
 85.20000000   8.02405506   0.00060448
 85.30000000   8.02405506   0.00060448
 85.40000000   8.02405506   0.00060448
 85.50000000   8.02405506   0.00060448
 85.60000000   8.02405506   0.00060448
 85.70000000   8.02405506   0.00060448
 85.80000000   8.02405506   0.00060448
 85.90000000   8.02405506   0.00060448
 86.00000000   8.02405506   0.00060448
 86.10000000   8.02405506   0.00060448
 86.20000000   8.02405506   0.00060448
 86.30000000   8.02405506   0.00060448
 86.40000000   8.02405506   0.00060448
 86.50000000   8.02405506   0.00060448
 86.60000000   8.02405506   0.00060448
 86.70000000   8.02405506   0.00060448
 86.80000000   8.02405506   0.00060448
 86.90000000   8.02405506   0.00060448
 87.00000000   8.02405506   0.00060448
 87.10000000   8.02405506   0.00060448
 87.20000000   8.02405506   0.00060448
 87.30000000   8.02405506   0.00060448
 87.40000000   8.02405506   0.00060448
 87.50000000   8.02405506   0.00060448
 87.60000000   8.02405506   0.00060448
 87.70000000   8.02405506   0.00060448
 87.80000000   8.02405506   0.00060448
 87.90000000   8.02405506   0.00060448
 88.00000000   8.02405506   0.00060448
 88.10000000   8.02405506   0.00060448
 88.20000000   8.02405506   0.00060448
 88.30000000   8.02405506   0.00060448
 88.40000000   8.02405506   0.00060448
 88.50000000   8.02405506   0.00060448
 88.60000000   8.02405506   0.00060448
 88.70000000   8.02405506   0.00060448
 88.80000000   8.02405506   0.00060448
 88.90000000   8.02405506   0.00060448
 89.00000000   8.02405506   0.00060448
 89.10000000   8.02405506   0.00060448
 89.20000000   8.02405506   0.00060448
 89.30000000   8.02405506   0.00060448
 89.40000000   8.02405506   0.00060448
 89.50000000   8.02405506   0.00060448
 89.60000000   8.02405506   0.00060448
 89.70000000   8.02405506   0.00060448
 89.80000000   8.02405506   0.00060448
 89.90000000   8.02405506   0.00060448
 90.00000000   8.02405506   0.00060448
 90.10000000   8.02405506   0.00060448
 90.20000000   8.02405506   0.00060448
 90.30000000   8.02405506   0.00060448
 90.40000000   8.02405506   0.00060448
 90.50000000   8.02405506   0.00060448
 90.60000000   8.02405506   0.00060448
 90.70000000   8.02405506   0.00060448
 90.80000000   8.02405506   0.00060448
 90.90000000   8.02405506   0.00060448
 91.00000000   8.02405506   0.00060448
 91.10000000   8.02405506   0.00060448
 91.20000000   8.02405506   0.00060448
 91.30000000   8.02405506   0.00060448
 91.40000000   8.02405506   0.00060448
 91.50000000   8.02405506   0.00060448
 91.60000000   8.02405506   0.00060448
 91.70000000   8.02405506   0.00060448
 91.80000000   8.02405506   0.00060448
 91.90000000   8.02405506   0.00060448
 92.00000000   8.02405506   0.00060448
 92.10000000   8.02405506   0.00060448
 92.20000000   8.02405506   0.00060448
 92.30000000   8.02405506   0.00060448
 92.40000000   8.02405506   0.00060448
 92.50000000   8.02405506   0.00060448
 92.60000000   8.02405506   0.00060448
 92.70000000   8.02405506   0.00060448
 92.80000000   8.02405506   0.00060448
 92.90000000   8.02405506   0.00060448
 93.00000000   8.02405506   0.00060448
 93.10000000   8.02405506   0.00060448
 93.20000000   8.02405506   0.00060448
 93.30000000   8.02405506   0.00060448
 93.40000000   8.02405506   0.00060448
 93.50000000   8.02405506   0.00060448
 93.60000000   8.02405506   0.00060448
 93.70000000   8.02405506   0.00060448
 93.80000000   8.02405506   0.00060448
 93.90000000   8.02405506   0.00060448
 94.00000000   8.02405506   0.00060448
 94.10000000   8.02405506   0.00060448
 94.20000000   8.02405506   0.00060448
 94.30000000   8.02405506   0.00060448
 94.40000000   8.02405506   0.00060448
 94.50000000   8.02405506   0.00060448
 94.60000000   8.02405506   0.00060448
 94.70000000   8.02405506   0.00060448
 94.80000000   8.02405506   0.00060448
 94.90000000   8.02405506   0.00060448
 95.00000000   8.02405506   0.00060448
 95.10000000   8.02405506   0.00060448
 95.20000000   8.02405506   0.00060448
 95.30000000   8.02405506   0.00060448
 95.40000000   8.02405506   0.00060448
 95.50000000   8.02405506   0.00060448
 95.60000000   8.02405506   0.00060448
 95.70000000   8.02405506   0.00060448
 95.80000000   8.02405506   0.00060448
 95.90000000   8.02405506   0.00060448
 96.00000000   8.02405506   0.00060448
 96.10000000   8.02405506   0.00060448
 96.20000000   8.02405506   0.00060448
 96.30000000   8.02405506   0.00060448
 96.40000000   8.02405506   0.00060448
 96.50000000   8.02405506   0.00060448
 96.60000000   8.02405506   0.00060448
 96.70000000   8.02405506   0.00060448
 96.80000000   8.02405506   0.00060448
 96.90000000   8.02405506   0.00060448
 97.00000000   8.02405506   0.00060448
 97.10000000   8.02405506   0.00060448
 97.20000000   8.02405506   0.00060448
 97.30000000   8.02405506   0.00060448
 97.40000000   8.02405506   0.00060448
 97.50000000   8.02405506   0.00060448
 97.60000000   8.02405506   0.00060448
 97.70000000   8.02405506   0.00060448
 97.80000000   8.02405506   0.00060448
 97.90000000   8.02405506   0.00060448
 98.00000000   8.02405506   0.00060448
 98.10000000   8.02405506   0.00060448
 98.20000000   8.02405506   0.00060448
 98.30000000   8.02405506   0.00060448
 98.40000000   8.02405506   0.00060448
 98.50000000   8.02405506   0.00060448
 98.60000000   8.02405506   0.00060448
 98.70000000   8.02405506   0.00060448
 98.80000000   8.02405506   0.00060448
 98.90000000   8.02405506   0.00060448
 99.00000000   8.02405506   0.00060448
 99.10000000   8.02405506   0.00060448
 99.20000000   8.02405506   0.00060448
 99.30000000   8.02405506   0.00060448
 99.40000000   8.02405506   0.00060448
 99.50000000   8.02405506   0.00060448
 99.60000000   8.02405506   0.00060448
 99.70000000   8.02405506   0.00060448
 99.80000000   8.02405506   0.00060448
 99.90000000   8.02405506   0.00060448
100.00000000   0.00000000   0.00000000
100.10000000   0.00000000   0.00000000
100.20000000   0.00000000   0.00000000
100.30000000   0.00000000   0.00000000
100.40000000   0.00000000   0.00000000
100.50000000   0.00000000   0.00000000
100.60000000   0.00000000   0.00000000
100.70000000   0.00000000   0.00000000
100.80000000   0.00000000   0.00000000
100.90000000   0.00000000   0.00000000
101.00000000   0.00000000   0.00000000
101.10000000   0.00000000   0.00000000
101.20000000   0.00000000   0.00000000
101.30000000   0.00000000   0.00000000
101.40000000   0.00000000   0.00000000
101.50000000   0.00000000   0.00000000
101.60000000   0.00000000   0.00000000
101.70000000   0.00000000   0.00000000
101.80000000   0.00000000   0.00000000
101.90000000   0.00000000   0.00000000
102.00000000   0.00000000   0.00000000
102.10000000   0.00000000   0.00000000
102.20000000   0.00000000   0.00000000
102.30000000   0.00000000   0.00000000
102.40000000   0.00000000   0.00000000
102.50000000   0.00000000   0.00000000
102.60000000   0.00000000   0.00000000
102.70000000   0.00000000   0.00000000
102.80000000   0.00000000   0.00000000
102.90000000   0.00000000   0.00000000
103.00000000   0.00000000   0.00000000
103.10000000   0.00000000   0.00000000
103.20000000   0.00000000   0.00000000
103.30000000   0.00000000   0.00000000
103.40000000   0.00000000   0.00000000
103.50000000   0.00000000   0.00000000
103.60000000   0.00000000   0.00000000
103.70000000   0.00000000   0.00000000
103.80000000   0.00000000   0.00000000
103.90000000   0.00000000   0.00000000
104.00000000   0.00000000   0.00000000
104.10000000   0.00000000   0.00000000
104.20000000   0.00000000   0.00000000
104.30000000   0.00000000   0.00000000
104.40000000   0.00000000   0.00000000
104.50000000   0.00000000   0.00000000
104.60000000   0.00000000   0.00000000
104.70000000   0.00000000   0.00000000
104.80000000   0.00000000   0.00000000
104.90000000   0.00000000   0.00000000
105.00000000   0.00000000   0.00000000
105.10000000   0.00000000   0.00000000
105.20000000   0.00000000   0.00000000
105.30000000   0.00000000   0.00000000
105.40000000   0.00000000   0.00000000
105.50000000   0.00000000   0.00000000
105.60000000   0.00000000   0.00000000
105.70000000   0.00000000   0.00000000
105.80000000   0.00000000   0.00000000
105.90000000   0.00000000   0.00000000
106.00000000   0.00000000   0.00000000
106.10000000   0.00000000   0.00000000
106.20000000   0.00000000   0.00000000
106.30000000   0.00000000   0.00000000
106.40000000   0.00000000   0.00000000
106.50000000   0.00000000   0.00000000
106.60000000   0.00000000   0.00000000
106.70000000   0.00000000   0.00000000
106.80000000   0.00000000   0.00000000
106.90000000   0.00000000   0.00000000
107.00000000   0.00000000   0.00000000
107.10000000   0.00000000   0.00000000
107.20000000   0.00000000   0.00000000
107.30000000   0.00000000   0.00000000
107.40000000   0.00000000   0.00000000
107.50000000   0.00000000   0.00000000
107.60000000   0.00000000   0.00000000
107.70000000   0.00000000   0.00000000
107.80000000   0.00000000   0.00000000
107.90000000   0.00000000   0.00000000
108.00000000   0.00000000   0.00000000
108.10000000   0.00000000   0.00000000
108.20000000   0.00000000   0.00000000
108.30000000   0.00000000   0.00000000
108.40000000   0.00000000   0.00000000
108.50000000   0.00000000   0.00000000
108.60000000   0.00000000   0.00000000
108.70000000   0.00000000   0.00000000
108.80000000   0.00000000   0.00000000
108.90000000   0.00000000   0.00000000
109.00000000   0.00000000   0.00000000
109.10000000   0.00000000   0.00000000
109.20000000   0.00000000   0.00000000
109.30000000   0.00000000   0.00000000
109.40000000   0.00000000   0.00000000
109.50000000   0.00000000   0.00000000
109.60000000   0.00000000   0.00000000
109.70000000   0.00000000   0.00000000
109.80000000   0.00000000   0.00000000
109.90000000   0.00000000   0.00000000
